Wavelength (nm)	Intensity (W/nm)
350.00	4.5991e-7
360.00	6.1665e-7
370.00	8.0426e-7
380.00	1.0224e-6
390.00	1.2853e-6
400.00	1.5851e-6
420.00	2.3205e-6
440.00	3.2933e-6
460.00	4.5876e-6
480.00	6.0390e-6
500.00	7.7235e-6
525.00	1.0117e-5
550.00	1.2798e-5
575.00	1.5709e-5
600.00	1.8788e-5
650.00	2.5107e-5
700.00	3.1416e-5
750.00	3.7082e-5
800.00	4.1879e-5
850.00	4.5883e-5
900.00	4.9056e-5
950.00	5.1372e-5
1000.00	5.2470e-5
1050.00	5.2529e-5
1100.00	5.3056e-5
1150.00	5.2750e-5
1200.00	5.1935e-5
1250.00	5.0948e-5
1300.00	4.9742e-5
1350.00	4.8755e-5
1400.00	4.6287e-5
1450.00	4.4471e-5
1500.00	4.2689e-5
1550.00	4.0761e-5
1600.00	3.8650e-5
1650.00	3.6870e-5
1700.00	3.6410e-5
1750.00	3.4839e-5
1800.00	3.3365e-5
1850.00	3.1905e-5
1900.00	2.9866e-5
1950.00	2.7859e-5
2000.00	2.6194e-5
2050.00	2.4675e-5
2100.00	2.3009e-5
2150.00	2.0987e-5
2200.00	1.9175e-5
2250.00	1.7841e-5
2300.00	1.7039e-5
2350.00	1.6195e-5
2400.00	1.4997e-5
